Data from Subt4_12-25-19-333.txt Node,
Date: Fri Oct 29 12:25:19 BST 2021,
User: php21ajb,
Spectrometer: HR+D0521,
Trigger mode: 0,
Integration Time (sec): 1.000000E-1,
Scans to average: 100,
Electric dark correction enabled: true,
Nonlinearity correction enabled: false,
Boxcar width: 0,
XAxis mode: Wavelengths,
Number of Pixels in Spectrum: 2048,
>>>>>Begin Spectral Data<<<<<,
187.928,-0.57
188.405,-0.57
188.882,-0.57
189.359,3.24
189.835,0.2
190.312,-2.07
190.789,1.72
191.265,-2.12
191.742,-1.03
192.219,0.5
192.695,-2.46
193.172,0.62
193.648,1.03
194.125,1.22
194.601,0.04
195.077,-0.11
195.554,0.93
196.03,-1.15
196.506,0.6
196.983,-0.94
197.459,-1.84
197.935,-0.32
198.411,-0.06
198.887,-0.43
199.363,-0.28
199.839,-1.47
200.315,0.35
200.791,0.48
201.267,1.88
201.743,0.96
202.219,0.09
202.695,-1.09
203.171,-0.69
203.647,-1.62
204.122,-0.9
204.598,-0.78
205.074,-0.69
205.549,-0.02
206.025,-2.19
206.501,1.19
206.976,0.43
207.452,-1.52
207.927,-0.72
208.402,-0.49
208.878,0.6
209.353,0.01
209.829,-0.12
210.304,-1.4
210.779,0.4
211.254,-4.15
211.73,-0.2
212.205,-0.36
212.68,-0.09
213.155,1.48
213.63,-0.46
214.105,-1.19
214.58,0.25
215.055,0.4
215.53,-0.49
216.005,-0.43
216.48,0.44
216.954,0.7
217.429,1.08
217.904,-0.62
218.379,-0.76
218.853,-1.88
219.328,0.03
219.803,-2.74
220.277,-0.04
220.752,-0.67
221.226,-0.51
221.701,0.22
222.175,-0.02
222.65,0.37
223.124,1.7
223.598,-1.15
224.073,-1.3
224.547,-0.05
225.021,-0.28
225.495,0.78
225.97,1.47
226.444,-2.52
226.918,-1.55
227.392,-0.7
227.866,0.71
228.34,-0.54
228.814,1.06
229.288,0.9
229.762,-0.38
230.236,-0.01
230.71,0.02
231.183,-0.86
231.657,-1.03
232.131,-1.57
232.605,-0.45
233.078,-0.55
233.552,-1.24
234.026,-1.63
234.499,0.14
234.973,0.8
235.446,0.56
235.92,-1.03
236.393,-0.22
236.867,-0.06
237.34,-0.11
237.813,1
238.287,-1.3
238.76,-0.6
239.233,0.17
239.706,-0.98
240.179,-0.69
240.653,0.98
241.126,-0.07
241.599,1.43
242.072,-0.7
242.545,-2.06
243.018,-0.2
243.491,-1.19
243.964,1.47
244.437,-0.17
244.909,0.73
245.382,0.22
245.855,-0.26
246.328,-1.73
246.8,0.77
247.273,0.49
247.746,0.56
248.218,0.54
248.691,0.6
249.163,1.69
249.636,-1.11
250.108,-0.58
250.581,-0.73
251.053,-1.3
251.526,1.05
251.998,0.25
252.47,0.29
252.943,-0.71
253.415,-1.1
253.887,1.3
254.359,0.15
254.831,-0.11
255.304,0.16
255.776,-0.01
256.248,-2.89
256.72,-0.4
257.192,-0.18
257.664,-0.89
258.136,0.84
258.607,-1.07
259.079,-0.5
259.551,0.21
260.023,-0.44
260.495,1.05
260.966,-1
261.438,3.13
261.91,-0.26
262.381,1.51
262.853,1.3
263.325,-1.22
263.796,1.63
264.268,0.09
264.739,0.38
265.21,0.47
265.682,0.19
266.153,-0.89
266.624,0.43
267.096,-1.83
267.567,0.61
268.038,1.16
268.509,-0.59
268.981,0.04
269.452,-0.78
269.923,0.4
270.394,1.03
270.865,-0.48
271.336,1.98
271.807,-1.77
272.278,0.91
272.749,-1.37
273.22,0.22
273.69,-0.54
274.161,3.97
274.632,-1.79
275.103,-0.11
275.574,-0.19
276.044,1.02
276.515,2.33
276.985,0.71
277.456,-0.42
277.927,-0.22
278.397,-1.51
278.868,-1.18
279.338,-0.01
279.808,0.75
280.279,1.27
280.749,-0.04
281.219,-2.55
281.69,-0.31
282.16,0.67
282.63,-1.85
283.1,0.16
283.571,1.17
284.041,1.25
284.511,-1.18
284.981,-0.26
285.451,-0.11
285.921,-1.27
286.391,-0.28
286.861,-1.58
287.331,0.28
287.8,-0.6
288.27,-0.76
288.74,1.7
289.21,-1.57
289.68,-1.87
290.149,-0.63
290.619,-0.22
291.089,-0.34
291.558,2.21
292.028,0.43
292.497,0.67
292.967,-1.35
293.436,-0.99
293.906,2.22
294.375,0.29
294.845,-0.16
295.314,0.74
295.783,-0.74
296.253,0.48
296.722,-1.4
297.191,0.1
297.66,1.46
298.129,-0.14
298.598,0.02
299.068,-0.04
299.537,-0.12
300.006,0.45
300.475,0.07
300.944,-1.23
301.413,-0.79
301.881,1.49
302.35,-1.11
302.819,0.05
303.288,1.31
303.757,1.39
304.225,0.66
304.694,-0.28
305.163,0.52
305.632,0.66
306.1,-0.21
306.569,1.63
307.037,-0.02
307.506,1.28
307.974,1.01
308.443,2.32
308.911,0.01
309.38,0.36
309.848,0.94
310.316,-1.79
310.785,0.11
311.253,-0.53
311.721,-0.47
312.189,0.61
312.657,-0.49
313.126,0.53
313.594,0.28
314.062,-1.17
314.53,-0.8
314.998,2.16
315.466,-1.34
315.934,0.56
316.402,0.92
316.869,0.2
317.337,-0.25
317.805,-1.85
318.273,0.26
318.741,-0.34
319.208,1.4
319.676,-0.09
320.144,-1.51
320.611,-0.88
321.079,1.02
321.547,-1.83
322.014,0.73
322.482,-1.24
322.949,0.87
323.416,0.99
323.884,0.78
324.351,-0.83
324.819,0.25
325.286,1.02
325.753,0.84
326.22,-1.9
326.688,0.14
327.155,0.2
327.622,-0.22
328.089,0.88
328.556,-0.94
329.023,0.67
329.49,-0.32
329.957,-0.25
330.424,0.89
330.891,0.71
331.358,0.67
331.825,0.19
332.292,-0.15
332.759,-1.47
333.225,0.08
333.692,1.06
334.159,1.61
334.626,2.08
335.092,-0.16
335.559,-0.99
336.026,1.52
336.492,-1.89
336.959,2.26
337.425,-0.24
337.892,-0.44
338.358,0.65
338.824,-0.32
339.291,0.4
339.757,0.54
340.223,0.82
340.69,0.83
341.156,0.1
341.622,0.49
342.088,1.09
342.555,1.44
343.021,0.81
343.487,-0.2
343.953,1.24
344.419,-1.62
344.885,1.75
345.351,-0.96
345.817,0.31
346.283,-1.78
346.749,-0.92
347.214,1.16
347.68,-0.17
348.146,-0.25
348.612,0.24
349.077,0.76
349.543,0.75
350.009,-0.2
350.474,0.77
350.94,-0.39
351.406,0.88
351.871,2.16
352.337,-1.12
352.802,-1.36
353.268,-1.01
353.733,0.29
354.198,2.77
354.664,0.41
355.129,0.58
355.594,0.58
356.06,0.13
356.525,3.25
356.99,1.55
357.455,1.1
357.92,1.4
358.385,-0.15
358.851,0.15
359.316,-0.11
359.781,0.65
360.246,2.55
360.711,-0.23
361.175,-0.86
361.64,0.06
362.105,-1.04
362.57,0.84
363.035,1.98
363.5,2.04
363.964,0.93
364.429,-0.56
364.894,1.09
365.358,2.09
365.823,0.4
366.288,1.79
366.752,0.33
367.217,-0.49
367.681,-1.18
368.146,-1.55
368.61,1.78
369.074,0.02
369.539,-0.43
370.003,0.12
370.467,1.01
370.932,-1.09
371.396,0.76
371.86,-0.73
372.324,-0.22
372.789,0.04
373.253,-0.61
373.717,0.56
374.181,-0.17
374.645,-1.51
375.109,0.06
375.573,-0.5
376.037,1.02
376.501,-0.22
376.965,0.1
377.428,-1.86
377.892,-1.75
378.356,1.35
378.82,1.52
379.284,-1.06
379.747,3.82
380.211,-1.34
380.675,0.23
381.138,-0.35
381.602,-0.17
382.065,-1.32
382.529,0.38
382.992,0.27
383.456,0.99
383.919,-0.44
384.383,-0.93
384.846,1.19
385.309,-0.79
385.773,1.17
386.236,-1.35
386.699,-1.51
387.162,0.91
387.626,0.26
388.089,-1.14
388.552,0.2
389.015,-0.52
389.478,-0.03
389.941,-0.54
390.404,0.96
390.867,0.68
391.33,0.96
391.793,1.6
392.256,0.11
392.719,-1.66
393.182,1.01
393.644,1.2
394.107,0.17
394.57,0.61
395.033,-0.35
395.495,1.53
395.958,2.7
396.42,1.18
396.883,2.58
397.346,1.49
397.808,1.23
398.271,1.79
398.733,1.91
399.196,4.51
399.658,3.15
400.12,1.03
400.583,2.23
401.045,1.81
401.507,4.05
401.97,2.13
402.432,3.19
402.894,9.32
403.356,11.76
403.818,22.81
404.28,46.19
404.743,133.97
405.205,491.21
405.667,1239.76
406.129,1939.17
406.591,1982.04
407.053,988.28
407.514,239.47
407.976,63.58
408.438,28.06
408.9,16.02
409.362,10.73
409.823,9.95
410.285,6.49
410.747,5.19
411.209,3.04
411.67,4.89
412.132,4.37
412.593,2.7
413.055,2.09
413.516,1.17
413.978,1.48
414.439,1.08
414.901,3.16
415.362,2.88
415.824,0.87
416.285,1.95
416.746,1.33
417.208,2.44
417.669,-0.36
418.13,2.07
418.591,1.76
419.052,1.24
419.514,1.4
419.975,2.41
420.436,1.03
420.897,-0.02
421.358,0.57
421.819,0.23
422.28,-1.1
422.741,0.93
423.202,0.9
423.662,1.96
424.123,-0.49
424.584,1.77
425.045,-0.22
425.506,0.67
425.966,1.7
426.427,-0.31
426.888,1.66
427.348,-0.11
427.809,1.56
428.27,-0.79
428.73,1.12
429.191,-0.58
429.651,2.48
430.112,-0.27
430.572,0.19
431.032,2.27
431.493,1.07
431.953,2.65
432.414,0.51
432.874,-0.6
433.334,1.54
433.794,-0.71
434.254,-1.5
434.715,1.99
435.175,-0.66
435.635,-0.26
436.095,1.38
436.555,-0.92
437.015,1.44
437.475,1.6
437.935,3.46
438.395,2.03
438.855,-2.27
439.315,-0.18
439.775,-2.52
440.234,-0.04
440.694,2.87
441.154,2.61
441.614,0.91
442.073,1.33
442.533,-0.4
442.993,2.02
443.452,0.84
443.912,-0.34
444.372,0.15
444.831,-0.29
445.291,0.68
445.75,-1.6
446.21,-0.01
446.669,-1.72
447.128,-0.47
447.588,-2.05
448.047,1.74
448.506,-0.59
448.966,0.31
449.425,-0.13
449.884,0.85
450.343,-0.29
450.802,1.35
451.262,0.78
451.721,2.33
452.18,-0.09
452.639,0.18
453.098,0
453.557,1.02
454.016,-1.61
454.475,0.47
454.934,-0.19
455.392,-1.43
455.851,1.28
456.31,0.81
456.769,1.78
457.228,-0.16
457.686,-1.31
458.145,-4.07
458.604,0.74
459.062,-0.23
459.521,-0.66
459.98,1.1
460.438,0.43
460.897,-0.53
461.355,0.69
461.814,-1.28
462.272,0.76
462.731,-0.48
463.189,0.69
463.647,0.13
464.106,-0.2
464.564,1.48
465.022,0.34
465.481,-0.11
465.939,1.39
466.397,0.59
466.855,-2.19
467.313,0.12
467.771,0.24
468.229,-1.33
468.687,0.13
469.145,1.96
469.603,1.61
470.061,-0.66
470.519,-0.64
470.977,-1.16
471.435,-1.68
471.893,2.01
472.351,-1.52
472.809,-0.93
473.266,1.04
473.724,-0.78
474.182,0.68
474.64,0.34
475.097,0.05
475.555,1.42
476.012,-0.58
476.47,-1.26
476.928,-0.21
477.385,0.53
477.843,0.67
478.3,1.01
478.757,-0.23
479.215,-1.15
479.672,-3.26
480.13,0.74
480.587,0.59
481.044,3.56
481.501,1.82
481.959,0.96
482.416,1.16
482.873,-0.84
483.33,0.58
483.787,1.3
484.244,1.02
484.701,1.14
485.159,1.62
485.616,-1.88
486.072,-0.21
486.529,0.64
486.986,0.98
487.443,1.59
487.9,-0.54
488.357,0.38
488.814,2.41
489.271,-1.24
489.727,0.83
490.184,0.91
490.641,-0.2
491.097,-0.34
491.554,-1.66
492.011,-1.37
492.467,-1.12
492.924,-0.92
493.38,-1.04
493.837,0.69
494.293,-0.92
494.75,0.08
495.206,1.43
495.663,-0.94
496.119,0.27
496.575,2.05
497.032,1.96
497.488,0.81
497.944,0.26
498.4,0.52
498.857,1.47
499.313,0.24
499.769,-1.06
500.225,1.15
500.681,1.34
501.137,1.14
501.593,-0.52
502.049,-1.02
502.505,-0.88
502.961,-0.74
503.417,-0.3
503.873,1.78
504.329,0.95
504.785,-1.45
505.241,1.58
505.696,1.24
506.152,0.55
506.608,0.66
507.064,-0.39
507.519,-0.58
507.975,0.67
508.431,1.51
508.886,0.24
509.342,-2.05
509.797,-2.02
510.253,0.09
510.708,0.42
511.164,3.05
511.619,3.01
512.075,0.27
512.53,-0.35
512.985,1.28
513.441,1.44
513.896,1.25
514.351,-0.21
514.806,0.35
515.262,-0.3
515.717,-1.51
516.172,-2.29
516.627,1.47
517.082,0.93
517.537,-1.31
517.992,-1.55
518.447,0.03
518.902,1.11
519.357,-0.47
519.812,-0.55
520.267,0.63
520.722,-2.34
521.177,2.57
521.632,-0.78
522.087,0.79
522.541,0.45
522.996,-0.92
523.451,0.59
523.906,-0.43
524.36,0.59
524.815,0.84
525.27,0.05
525.724,-0.69
526.179,-0.43
526.633,-1.27
527.088,1.71
527.542,0.46
527.997,1.91
528.451,2.34
528.906,0.22
529.36,0.17
529.814,-1.32
530.269,-0.95
530.723,0.4
531.177,-0.36
531.631,0.81
532.086,0.69
532.54,1.25
532.994,1.95
533.448,1.13
533.902,-0.18
534.356,0.64
534.81,-0.04
535.264,-0.6
535.718,-0.2
536.172,0.72
536.626,2.96
537.08,-0.67
537.534,1.46
537.988,2.63
538.442,1.02
538.896,1.84
539.349,0.25
539.803,-0.83
540.257,-0.31
540.711,0.49
541.164,0.41
541.618,-0.95
542.072,-0.7
542.525,0.08
542.979,0.21
543.432,1.82
543.886,0.05
544.339,1.56
544.793,1.17
545.246,1.41
545.7,-0.08
546.153,1.15
546.606,-0.97
547.06,1.32
547.513,-1.23
547.966,0.38
548.42,-0.99
548.873,2.36
549.326,1.47
549.779,1.74
550.232,-0.81
550.685,0.03
551.138,1.3
551.592,0.88
552.045,0.49
552.498,-0.4
552.951,0.59
553.404,0.26
553.856,-0.12
554.309,0.22
554.762,0.05
555.215,0.15
555.668,1.92
556.121,1.59
556.574,1.28
557.026,2.24
557.479,-1.31
557.932,0.08
558.384,2.46
558.837,-1.16
559.29,1.38
559.742,-0.89
560.195,0.5
560.647,-1.06
561.1,-0.86
561.552,0.41
562.005,0.95
562.457,0.63
562.91,0.45
563.362,1.1
563.814,-0.02
564.267,1.33
564.719,0.91
565.171,0.02
565.624,-0.15
566.076,1.87
566.528,-0.85
566.98,1.26
567.432,2.1
567.884,1.73
568.337,-0.87
568.789,0.8
569.241,-0.04
569.693,0.98
570.145,1.32
570.597,-1.74
571.049,0.58
571.5,1.56
571.952,1.44
572.404,-1.01
572.856,-2.39
573.308,2.3
573.76,2.24
574.211,1.25
574.663,0.76
575.115,-1.21
575.567,2.6
576.018,2.38
576.47,0.63
576.921,1.38
577.373,0.68
577.825,-0.09
578.276,3.2
578.728,-0.27
579.179,0.77
579.63,0.05
580.082,-1.65
580.533,-0.32
580.985,2.2
581.436,0.65
581.887,1.27
582.339,-0.78
582.79,1.77
583.241,1.76
583.692,-0.6
584.144,-0.64
584.595,0.27
585.046,-0.25
585.497,0.1
585.948,-0.3
586.399,0.22
586.85,-0.54
587.301,1.26
587.752,-0.92
588.203,-1.62
588.654,-0.83
589.105,-0.54
589.556,0.47
590.007,0.43
590.457,1.76
590.908,-1.35
591.359,1.51
591.81,-0.39
592.261,-1.16
592.711,-0.19
593.162,-0.08
593.613,-0.85
594.063,1.32
594.514,0.46
594.964,0.61
595.415,-0.71
595.865,-1.06
596.316,-1.49
596.766,-0.27
597.217,0.71
597.667,-0.66
598.118,1.04
598.568,0.97
599.018,-1.18
599.469,-0.81
599.919,0.2
600.369,0.14
600.82,-0.16
601.27,1.08
601.72,1.21
602.17,0.8
602.62,-0.9
603.07,0.32
603.52,0.67
603.971,0.42
604.421,-0.42
604.871,0.13
605.321,0.02
605.771,-1.1
606.221,0.74
606.67,-0.88
607.12,-0.71
607.57,-0.39
608.02,0.49
608.47,-0.78
608.92,-1.48
609.369,0.39
609.819,0.28
610.269,1.44
610.719,0.03
611.168,-0.73
611.618,-0.63
612.067,-0.77
612.517,1.96
612.967,0.43
613.416,-0.85
613.866,0.38
614.315,-1.12
614.765,0.88
615.214,-0.3
615.663,-0.95
616.113,-1.14
616.562,0.89
617.012,0.2
617.461,0.08
617.91,0.37
618.359,0.52
618.809,-0.15
619.258,0.17
619.707,-0.1
620.156,0.1
620.605,1.04
621.055,0.24
621.504,0.63
621.953,0.01
622.402,1.63
622.851,-0.55
623.3,1.93
623.749,0.23
624.198,-0.88
624.647,0.32
625.095,-0.83
625.544,1.1
625.993,0.54
626.442,0.41
626.891,0.32
627.34,-1.26
627.788,0.83
628.237,2.5
628.686,-0.1
629.134,-0.19
629.583,-0.97
630.032,2.13
630.48,1.08
630.929,0.86
631.377,-1.53
631.826,-0.15
632.274,2.05
632.723,1.18
633.171,-1.06
633.62,1.89
634.068,-0.86
634.516,-0.13
634.965,-1.27
635.413,1.1
635.861,-0.22
636.31,1.76
636.758,0.32
637.206,-0.24
637.654,-0.31
638.103,-0.64
638.551,-0.91
638.999,0.49
639.447,-1.98
639.895,0.73
640.343,-2.72
640.791,0.85
641.239,1.63
641.687,0.25
642.135,2.29
642.583,-0.62
643.031,0.59
643.479,0.21
643.927,-0.39
644.374,-1.07
644.822,0.25
645.27,0.79
645.718,0.74
646.166,0.84
646.613,2.31
647.061,0.4
647.509,0.06
647.956,-0.19
648.404,1.46
648.851,0
649.299,-0.22
649.747,0.03
650.194,3.31
650.642,2.56
651.089,-0.05
651.537,-0.42
651.984,2.46
652.431,1.41
652.879,1.85
653.326,0.1
653.773,2.75
654.221,4.85
654.668,-1
655.115,2.88
655.562,-1.17
656.01,1.93
656.457,2.28
656.904,0.65
657.351,1.83
657.798,0.8
658.245,1.11
658.692,0.31
659.139,0.66
659.586,3.58
660.033,1.38
660.48,2.26
660.927,1.52
661.374,-1
661.821,2.9
662.268,1.69
662.715,0.13
663.162,2.21
663.608,3.04
664.055,0.61
664.502,2.86
664.949,0.59
665.395,1.74
665.842,1.31
666.289,1.19
666.735,1.19
667.182,2.17
667.629,2.17
668.075,4.14
668.522,0.62
668.968,1.84
669.415,1.42
669.861,0.67
670.308,1.5
670.754,0.61
671.2,1.25
671.647,2.84
672.093,1.11
672.539,1.37
672.986,1.27
673.432,1.69
673.878,2.37
674.324,2.54
674.771,4.63
675.217,2.45
675.663,2.03
676.109,3.29
676.555,4.94
677.001,3.56
677.447,1.91
677.893,2.88
678.339,4.64
678.785,2.71
679.231,0.5
679.677,3.42
680.123,3.44
680.569,3.41
681.015,6.14
681.461,6.21
681.907,5.51
682.353,6
682.798,5.2
683.244,6.2
683.69,3.88
684.135,4.53
684.581,6.74
685.027,4.79
685.472,5.13
685.918,5.64
686.364,4.5
686.809,7.61
687.255,5.87
687.7,7.84
688.146,7.63
688.591,7.2
689.037,8.62
689.482,8.2
689.928,8.64
690.373,9.59
690.818,9.9
691.264,8.39
691.709,10.52
692.154,8.12
692.6,10.99
693.045,9.63
693.49,11.46
693.935,11.61
694.38,11.78
694.825,11.53
695.271,14.54
695.716,10.59
696.161,12.57
696.606,13.84
697.051,14.22
697.496,14.81
697.941,14.07
698.386,16.43
698.831,17.4
699.276,17.78
699.721,18.93
700.165,19.32
700.61,18.19
701.055,21.75
701.5,21.21
701.945,22.12
702.389,23.33
702.834,21.16
703.279,22.84
703.724,23.28
704.168,26.27
704.613,27.77
705.058,26.93
705.502,28.7
705.947,30.3
706.391,32.41
706.836,33.73
707.28,32.11
707.725,34.53
708.169,37.04
708.614,37.17
709.058,39.34
709.502,38.38
709.947,43.21
710.391,44.6
710.835,44.46
711.28,45.39
711.724,47.82
712.168,52.05
712.613,52.2
713.057,52.18
713.501,57.34
713.945,57.38
714.389,59.01
714.833,60.8
715.277,64.43
715.722,64.94
716.166,67.73
716.61,70.67
717.054,73.63
717.498,75.16
717.942,78.03
718.385,81.91
718.829,83.51
719.273,86.53
719.717,91.67
720.161,94.07
720.605,96.8
721.049,103.9
721.492,104.7
721.936,110.07
722.38,111.84
722.824,117.63
723.267,121.24
723.711,124.01
724.155,130.7
724.598,135.04
725.042,136.65
725.485,144.66
725.929,148.54
726.372,153.01
726.816,159.83
727.259,166.21
727.703,170.6
728.146,176.24
728.59,183.99
729.033,190.57
729.476,200.31
729.92,205.88
730.363,212.03
730.806,222.09
731.25,226.22
731.693,233.49
732.136,244.11
732.579,251.39
733.023,261.04
733.466,270.12
733.909,280.77
734.352,289.7
734.795,302.57
735.238,306.34
735.681,318.65
736.124,331.05
736.567,344.14
737.01,358.66
737.453,368.43
737.896,381.91
738.339,394.26
738.782,405.65
739.225,419.56
739.668,433.89
740.111,448.4
740.553,460.36
740.996,477.87
741.439,494.92
741.882,508.67
742.325,523.1
742.767,541.95
743.21,554.23
743.653,574.15
744.095,594.67
744.538,611.91
744.98,627.38
745.423,645.11
745.866,666.38
746.308,685.28
746.751,704.94
747.193,723.48
747.635,745.4
748.078,761.14
748.52,786.27
748.963,806.11
749.405,827.51
749.847,853.16
750.29,873.52
750.732,893.49
751.174,922.51
751.617,943.87
752.059,969.44
752.501,989.58
752.943,1010.95
753.385,1036.4
753.828,1053.08
754.27,1078.79
754.712,1102.83
755.154,1114.6
755.596,1150.8
756.038,1165.19
756.48,1190.96
756.922,1204.57
757.364,1220.38
757.806,1236.37
758.248,1253.57
758.69,1268.43
759.132,1277.2
759.574,1296.69
760.016,1305.17
760.457,1314.33
760.899,1334.68
761.341,1339.84
761.783,1339.44
762.224,1350.51
762.666,1359.4
763.108,1354.04
763.55,1366.53
763.991,1364.83
764.433,1363.98
764.874,1353.87
765.316,1359.1
765.758,1352.05
766.199,1338.84
766.641,1329.95
767.082,1318.85
767.524,1310.23
767.965,1302.85
768.407,1291.82
768.848,1266.52
769.289,1254.05
769.731,1241.22
770.172,1221.89
770.613,1204.02
771.055,1185.53
771.496,1155.54
771.937,1141.31
772.379,1120.09
772.82,1097.72
773.261,1075.13
773.702,1053.71
774.143,1031.87
774.584,1010.37
775.026,984.89
775.467,958.9
775.908,944.69
776.349,917.09
776.79,896.87
777.231,870.42
777.672,848.55
778.113,834.18
778.554,805.16
778.995,788.49
779.436,767.52
779.876,745.64
780.317,730.49
780.758,706.27
781.199,691.91
781.64,670.85
782.081,651.37
782.521,631.98
782.962,612.47
783.403,596.58
783.843,582.04
784.284,567.84
784.725,551.38
785.165,535.24
785.606,524.16
786.047,508.38
786.487,494.02
786.928,476.38
787.368,465.33
787.809,454.3
788.249,440.79
788.69,432.88
789.13,415.2
789.571,402.96
790.011,394.3
790.451,384.73
790.892,374.46
791.332,363.38
791.772,353.38
792.213,342.17
792.653,332.48
793.093,321.02
793.533,314.92
793.974,306.34
794.414,297.95
794.854,290.47
795.294,282.13
795.734,275.78
796.174,265.62
796.614,257.13
797.054,248.86
797.494,245.17
797.934,237.84
798.374,231.66
798.814,224.07
799.254,218.23
799.694,214.71
800.134,206.4
800.574,204.08
801.014,195.35
801.454,188.96
801.894,183.17
802.334,179.62
802.773,172.94
803.213,170.37
803.653,162.46
804.093,156.74
804.532,154.48
804.972,150.11
805.412,143.91
805.851,139.82
806.291,138.72
806.731,136.78
807.17,130.07
807.61,125.06
808.049,120.06
808.489,119.1
808.928,114.6
809.368,110.32
809.807,106.71
810.247,104.07
810.686,98.87
811.125,98.21
811.565,96.11
812.004,92.94
812.444,90.42
812.883,85.37
813.322,83.74
813.761,81.17
814.201,78.58
814.64,76.48
815.079,71.09
815.518,69.48
815.958,69.99
816.397,63.7
816.836,64.46
817.275,62.39
817.714,59.47
818.153,58.42
818.592,54.87
819.031,53.5
819.47,55.13
819.909,49.68
820.348,51.04
820.787,48.18
821.226,46.27
821.665,44.4
822.104,44.69
822.543,43.1
822.982,39.23
823.42,39.6
823.859,38.81
824.298,37.5
824.737,34.57
825.176,36.3
825.614,35.76
826.053,32.62
826.492,32.93
826.93,31.11
827.369,30.29
827.808,27.59
828.246,27.37
828.685,26.26
829.123,25.85
829.562,26.09
830,24.26
830.439,24.88
830.877,24.11
831.316,20.79
831.754,21.48
832.193,21.21
832.631,17.39
833.07,20.29
833.508,19.53
833.946,18.05
834.385,17.57
834.823,16.8
835.261,16.7
835.7,17.56
836.138,15.22
836.576,16.82
837.014,17.22
837.452,12.46
837.891,13.28
838.329,12.05
838.767,12.21
839.205,11.49
839.643,10.7
840.081,13.64
840.519,11.13
840.957,11.23
841.395,11.36
841.833,11.03
842.271,11.43
842.709,11.37
843.147,11.25
843.585,10.96
844.023,9.26
844.461,10.68
844.899,9.26
845.336,9.89
845.774,6.79
846.212,7.91
846.65,7.11
847.088,9.21
847.525,6.21
847.963,7.17
848.401,7.65
848.838,4.76
849.276,6.25
849.714,7.63
850.151,6.48
850.589,7.58
851.026,5.33
851.464,4.1
851.902,4.62
852.339,3.58
852.777,5.14
853.214,3.95
853.651,4.14
854.089,5.98
854.526,3.23
854.964,6.44
855.401,4.65
855.838,2.84
856.276,6.05
856.713,4.53
857.15,5.05
857.588,3.47
858.025,2.42
858.462,2.45
858.899,3.08
859.337,3.09
859.774,0.72
860.211,2.39
860.648,2.07
861.085,2.57
861.522,0.78
861.959,3.01
862.397,3.3
862.834,4.04
863.271,2
863.708,0.8
864.145,3.81
864.582,3.25
865.019,3.31
865.456,3.76
865.892,1.99
866.329,2.1
866.766,2.94
867.203,4.08
867.64,2.37
868.077,2.88
868.514,0.51
868.95,3.23
869.387,2.1
869.824,2.71
870.261,3.23
870.697,4.37
871.134,0.44
871.571,1.15
872.007,2.5
872.444,0.71
872.88,2.87
873.317,2.07
873.754,0.58
874.19,3.14
874.627,1.09
875.063,1.16
875.5,2.64
875.936,1.06
876.373,-0.24
876.809,2.04
877.246,1.4
877.682,1.62
878.118,1.83
878.555,0.81
878.991,1
879.427,3.38
879.864,1.51
880.3,3.59
880.736,2.08
881.172,2.1
881.609,2.18
882.045,1.41
882.481,0.74
882.917,0.59
883.353,1.24
883.79,1.81
884.226,1.88
884.662,2.96
885.098,3.14
885.534,1.71
885.97,1.68
886.406,3.41
886.842,1.66
887.278,2.91
887.714,0.91
888.15,1.44
888.586,-0.74
889.022,-1.29
889.458,1.9
889.893,1.36
890.329,-0.11
890.765,0.6
891.201,0.74
891.637,-0.4
892.073,0.27
892.508,-0.41
892.944,1.21
893.38,1.37
893.816,2.39
894.251,1.78
894.687,2.28
895.123,-0.9
895.558,2.89
895.994,0.13
896.429,2.74
896.865,1.52
897.301,2.16
897.736,1.93
898.172,-1.02
898.607,1.21
899.043,2.17
899.478,-0.3
899.913,1.29
900.349,1.55
900.784,3.13
901.22,0.99
901.655,-0.95
902.09,-0.3
902.526,1.04
902.961,0.78
903.396,1.02
903.832,-0.44
904.267,2.06
904.702,1.28
905.137,0.79
905.573,2.54
906.008,0.7
906.443,-0.87
906.878,1.3
907.313,-0.16
907.748,-1.78
908.183,0.26
908.619,0.28
909.054,-0.29
909.489,-1.32
909.924,0.28
910.359,1.43
910.794,0.91
911.229,0.66
911.664,0.81
912.099,-0.54
912.533,0.09
912.968,-1.17
913.403,0.99
913.838,0.63
914.273,0.17
914.708,-1.45
915.143,-0.23
915.577,0.97
916.012,1.43
916.447,1
916.882,0.15
917.316,0.37
917.751,-1
918.186,2.31
918.62,-0.76
919.055,0.28
919.49,-0.01
919.924,-1.5
920.359,1.06
920.793,-0.17
921.228,-1.94
921.663,0.49
922.097,0.85
922.532,-0.02
922.966,2.4
923.4,0.02
923.835,1.78
924.269,2.37
924.704,1.63
925.138,1.2
925.573,0.01
926.007,1.64
926.441,1.94
926.876,1.43
927.31,1.76
927.744,0.23
928.178,-0.53
928.613,1.08
929.047,1
929.481,1.63
929.915,0.85
930.35,-0.06
930.784,1.83
931.218,-1.14
931.652,1.62
932.086,1.45
932.52,0.68
932.954,1.47
933.388,-0.16
933.822,0.72
934.256,0.41
934.69,0.97
935.124,0.48
935.558,1.83
935.992,0.38
936.426,0.09
936.86,1.55
937.294,-0.29
937.728,2.48
938.162,0.7
938.596,1.68
939.029,2.64
939.463,-0.24
939.897,3.06
940.331,0.16
940.765,0.49
941.198,0.81
941.632,-1.37
942.066,0.73
942.499,0.36
942.933,-0.99
943.367,1.76
943.8,-1.63
944.234,0.79
944.668,0.93
945.101,0.71
945.535,0.55
945.968,-0.5
946.402,3.82
946.835,0.55
947.269,-2.22
947.702,-0.34
948.136,2.05
948.569,1.08
949.003,1.09
949.436,0.31
949.869,0.25
950.303,2.11
950.736,2.59
951.17,0.25
951.603,-0.47
952.036,0.47
952.469,-1.21
952.903,0.2
953.336,0.79
953.769,0.64
954.202,-1.32
954.636,2.9
955.069,0.35
955.502,0.06
955.935,1.31
956.368,0.46
956.801,-0.24
957.234,1.24
957.668,1.35
958.101,-2.55
958.534,-1.54
958.967,2.07
959.4,0.72
959.833,-0.42
960.266,0.25
960.699,1.28
961.132,-0.56
961.565,1.16
961.997,-0.85
962.43,1.68
962.863,1.55
963.296,-0.67
963.729,0.9
964.162,1.66
964.595,0.88
965.027,-0.97
965.46,-1.95
965.893,0.12
966.326,2.24
966.758,-2.2
967.191,-1.04
967.624,0.6
968.056,-0.26
968.489,0.85
968.922,-0.56
969.354,-0.02
969.787,2.43
970.22,2.43
970.652,1.86
971.085,0.56
971.517,-1.03
971.95,2.51
972.382,-1.42
972.815,0.42
973.247,0.59
973.68,1.79
974.112,3.28
974.545,-1.6
974.977,1.07
975.409,1.21
975.842,0.79
976.274,0.64
976.707,1.93
977.139,3.75
977.571,1.5
978.003,0.77
978.436,0.09
978.868,1.39
979.3,0.88
979.732,0.32
980.165,-0.92
980.597,0.6
981.029,1.04
981.461,0.89
981.893,0.43
982.325,0.52
982.758,1.85
983.19,0.52
983.622,-0.29
984.054,0.16
984.486,1.36
984.918,-0.04
985.35,0.15
985.782,-0.93
986.214,3.3
986.646,-1.21
987.078,-1.67
987.51,0.54
987.942,2.29
988.373,1.45
988.805,1.25
989.237,1.28
989.669,-0.17
990.101,1.38
990.533,-0.45
990.965,1.19
991.396,0.6
991.828,0.13
992.26,-0.84
992.692,-1.19
993.123,0.22
993.555,-0.33
993.987,-0.26
994.418,1.25
994.85,-1.52
995.282,-0.27
995.713,-1.13
996.145,-0.71
996.576,1.89
997.008,-0.63
997.44,-0.58
997.871,-0.05
998.303,0.35
998.734,0.38
999.166,0.79
999.597,0.71
1000.029,0.96
1000.46,2.04
1000.891,1.67
1001.323,1.37
1001.754,-0.52
1002.186,0.8
1002.617,-1
1003.048,0.46
1003.48,-0.63
1003.911,1.53
1004.342,-0.97
1004.774,0.82
1005.205,0.76
1005.636,0.21
1006.067,-0.05
1006.498,0.16
1006.93,0.62
1007.361,-0.13
1007.792,0.93
1008.223,-1.3
1008.654,-0.97
1009.085,0.21
1009.517,2.16
1009.948,-0.17
1010.379,0.68
1010.81,0.89
1011.241,1.95
1011.672,1.1
1012.103,-1.02
1012.534,-0.05
1012.965,2.36
1013.396,1.44
1013.827,-0.07
1014.258,-0.85
1014.689,1.92
1015.12,-0.09
1015.55,-0.25
1015.981,-0.67
1016.412,-0.14
1016.843,1.56
1017.274,-0.25
1017.705,-0.7
1018.135,1.32
1018.566,2.81
1018.997,-0.14
1019.428,0.35
1019.858,1.96
1020.289,0.48
1020.72,-0.03
1021.15,-1.87
1021.581,1.25
1022.012,0.34
1022.442,-0.49
1022.873,-0.09
1023.304,0.97
1023.734,-1.37
1024.165,0.28
1024.595,0.01
1025.026,0.42
1025.456,2.47
1025.887,-0.17
1026.317,0.59
1026.748,-1.08
1027.178,-1.27
1027.609,0.19
1028.039,-1.95
1028.47,0.26
1028.9,0.02
1029.331,0.8
1029.761,0.53
1030.191,-0.68
1030.622,1.04
1031.052,0.14
1031.482,-0.11
1031.913,0.37
1032.343,-1.87
1032.773,-0.41
1033.203,0.74
1033.634,-0.74
1034.064,-0.66
1034.494,-0.76
1034.924,0.97
1035.354,1.66
1035.784,-2.03
1036.215,-0.08
1036.645,1.67
1037.075,-0.93
1037.505,-0.24
1037.935,2.12
1038.365,0.73
1038.795,0.65
1039.225,-1.53
1039.655,0.43
1040.085,0.79
1040.515,-0.11
1040.945,2.18
1041.375,0.52
1041.805,0.83
1042.235,-0.68
1042.665,-0.27
1043.095,-1.11
1043.525,-0.97
1043.955,-1.01
1044.384,0.55
1044.814,0.28
1045.244,1.82
1045.674,0.44
1046.104,0.77
1046.534,-0.44
1046.963,1.09
1047.393,0.03
1047.823,0.08
1048.252,0.02
1048.682,0.52
1049.112,1.96
1049.542,-2.13
1049.971,1.23
1050.401,-0.51
1050.831,0.21
1051.26,1.99
1051.69,-0.1
1052.119,0.44
1052.549,1.6
1052.978,-0.69
1053.408,-0.13
1053.838,-2.64
1054.267,1.87
1054.697,0.5
1055.126,-1.13
1055.555,1.9
1055.985,0.5
1056.414,0.28
1056.844,1.78
1057.273,-2.91
1057.703,-1.2
1058.132,1.83
1058.561,0.84
1058.991,1.53
1059.42,-0.91
1059.849,1.4
1060.279,-0.9
1060.708,-0.64
1061.137,-0.99
1061.566,0.65
1061.996,0.45
1062.425,1.13
1062.854,0.33
1063.283,2.03
1063.713,1.89
1064.142,-2.58
1064.571,-0.43
1065,0.07
1065.429,-0.79
1065.858,-0.59
1066.287,-0.04
1066.716,1.85
1067.146,3.61
1067.575,-0.54
1068.004,0.45
1068.433,-0.17
1068.862,0.92
1069.291,-0.72
1069.72,0.15
1070.149,-0.53
1070.578,0.43
1071.007,-1.62
1071.435,0.25
1071.864,0.79
1072.293,1.58
1072.722,-0.56
1073.151,2.42
1073.58,1.5
1074.009,-0.24
1074.438,-0.67
1074.866,0.51
1075.295,-0.25
1075.724,1.27
1076.153,1.51
1076.581,-1.5
1077.01,0.62
1077.439,0.37
1077.868,0
1078.296,-0.2
1078.725,-2.69
1079.154,-0.39
1079.582,0.84
1080.011,1.28
1080.44,3.22
1080.868,1.21
1081.297,0.53
1081.725,0.59
1082.154,-0.78
1082.583,-0.4
1083.011,-0.51
1083.44,0.94
1083.868,0.95
1084.297,-0.31
1084.725,2.94
1085.154,-0.6
1085.582,-0.96
1086.011,1.03
1086.439,-0.34
1086.867,-1.97
1087.296,0.79
1087.724,-0.66
1088.153,0.53
1088.581,2.44
1089.009,0.44
1089.438,0.59
1089.866,0.71
1090.294,-0.6
1090.723,-1.3
1091.151,-0.15
1091.579,0.95
1092.007,0.52
1092.436,1.89
1092.864,2.58
1093.292,0.85
1093.72,-0.21
1094.148,0.14
1094.576,-2.74
1095.005,2.67
1095.433,1.02
1095.861,2.1
1096.289,1.31
1096.717,0.33
1097.145,0.32
1097.573,-0.04
1098.001,-1.51
1098.429,-1.15
1098.857,-0.64
1099.285,1.33
1099.713,-0.24
1100.141,-0.38
1100.569,0.33
1100.997,1.92
1101.425,-0.41
1101.853,-0.91
1102.281,0.19
1102.709,1.17
1103.137,-0.69
1103.565,-0.94
1103.993,-1.02
1104.421,0.47
1104.848,0.19
1105.276,0.91
1105.704,-2.54
1106.132,-0.35
1106.56,0.18
